File: Chapter4_Crystallinity-measurement/data/DSC/500907_1.csv
Time,Unsubtracted Heat Flow,Baseline Heat Flow,Program Temperature,Sample Temperature,Approx. Gas Flow,Heat Flow Calibration,Uncorrected Heat Flow,
0.0,1.7259,0.0,30.0,30.641,0.0,1.0,1.7259,
2.666667,1.9594,0.0,30.0,30.641,0.0,1.0,1.9594,
5.333333,1.7036,0.0,33.254,33.445,0.0,1.0,1.7036,
8.0,2.4339,0.0,59.879,60.004,0.0,1.0,2.4339,
10.6667,3.1296,0.0,86.5,86.645,0.0,1.0,3.1296,
13.3333,3.8695,0.0,113.125,113.237,0.0,1.0,3.8695,
16.0,4.6941,0.0,139.745,139.866,0.0,1.0,4.6941,
18.6667,5.5305,0.0,166.37,166.462,0.0,1.0,5.5305,
21.3333,6.491,0.0,192.991,193.091,0.0,1.0,6.491,
24.0,7.5598,0.0,219.616,219.687,0.0,1.0,7.5598,
26.6667,8.7391,0.0,246.237,246.337,0.0,1.0,8.7391,
29.3333,10.0718,0.0,272.862,272.941,0.0,1.0,10.0718,
32.0,11.5559,0.0,299.483,299.583,0.0,1.0,11.5559,
34.6667,13.4399,0.0,326.108,326.2,0.0,1.0,13.4399,
37.3333,15.0485,0.0,352.729,352.816,0.0,1.0,15.0485,
40.0,17.1205,0.0,379.354,379.441,0.0,1.0,17.1205,
40.8443,16.4406,0.0,372.204,372.754,0.0,1.0,16.4406,
41.6443,15.7976,0.0,364.216,364.779,0.0,1.0,15.7976,
42.4443,15.1715,0.0,356.229,356.804,0.0,1.0,15.1715,
43.2443,14.5956,0.0,348.241,348.808,0.0,1.0,14.5956,
44.0443,14.0326,0.0,340.254,340.816,0.0,1.0,14.0326,
44.8443,13.5044,0.0,332.266,332.833,0.0,1.0,13.5044,
45.6443,12.9909,0.0,324.283,324.862,0.0,1.0,12.9909,
46.4443,12.4993,0.0,316.295,316.887,0.0,1.0,12.4993,
47.2443,12.0202,0.0,308.308,308.904,0.0,1.0,12.0202,
48.0443,11.4093,0.0,300.32,300.92,0.0,1.0,11.4093,
48.8443,10.7455,0.0,292.333,292.929,0.0,1.0,10.7455,
49.6443,10.5947,0.0,284.345,284.941,0.0,1.0,10.5947,
50.4443,10.2165,0.0,276.362,276.945,0.0,1.0,10.2165,
51.2443,9.838,0.0,268.375,268.97,0.0,1.0,9.838,
52.0443,9.4592,0.0,260.387,260.991,0.0,1.0,9.4592,
52.8443,9.0979,0.0,252.4,253.025,0.0,1.0,9.0979,
53.6443,8.7405,0.0,244.412,245.05,0.0,1.0,8.7405,
54.4443,8.3971,0.0,236.425,237.05,0.0,1.0,8.3971,
55.2443,8.0504,0.0,228.437,229.062,0.0,1.0,8.0504,
56.0443,7.7281,0.0,220.454,221.079,0.0,1.0,7.7281,
56.8443,7.409,0.0,212.466,213.095,0.0,1.0,7.409,
57.6443,7.0992,0.0,204.479,205.12,0.0,1.0,7.0992,
58.4443,6.8004,0.0,196.491,197.15,0.0,1.0,6.8004,
59.2443,6.5105,0.0,188.504,189.179,0.0,1.0,6.5105,
60.0443,6.2187,0.0,180.516,181.187,0.0,1.0,6.2187,
60.8443,5.9477,0.0,172.529,173.208,0.0,1.0,5.9477,
61.6443,5.6822,0.0,164.545,165.225,0.0,1.0,5.6822,
62.4443,5.4331,0.0,156.558,157.241,0.0,1.0,5.4331,
63.2443,5.1953,0.0,148.57,149.266,0.0,1.0,5.1953,
64.0443,4.9668,0.0,140.583,141.304,0.0,1.0,4.9668,
64.8443,4.7422,0.0,132.595,133.325,0.0,1.0,4.7422,
65.6443,4.514,0.0,124.608,125.337,0.0,1.0,4.514,
66.4443,4.2967,0.0,116.625,117.362,0.0,1.0,4.2967,
67.2443,4.077,0.0,108.637,109.387,0.0,1.0,4.077,
68.0443,3.8845,0.0,100.65,101.425,0.0,1.0,3.8845,
68.8443,3.6897,0.0,92.662,93.458,0.0,1.0,3.6897,
69.6443,3.5027,0.0,84.675,85.5,0.0,1.0,3.5027,
70.4443,3.3268,0.0,76.687,77.525,0.0,1.0,3.3268,
71.2443,3.1553,0.0,68.7,69.545,0.0,1.0,3.1553,
72.0443,2.9791,0.0,60.716,61.579,0.0,1.0,2.9791,
72.8443,2.814,0.0,52.729,53.629,0.0,1.0,2.814,
73.6443,2.6599,0.0,44.741,45.708,0.0,1.0,2.6599,
74.4443,2.5243,0.0,36.754,37.804,0.0,1.0,2.5243,
75.5325,1.9642,0.0,30.0,30.637,0.0,1.0,1.9642,
78.1992,1.973,0.0,30.0,30.641,0.0,1.0,1.973,
80.3502,1.5639,0.0,32.2,32.412,0.0,1.0,1.5639,
81.1502,1.9215,0.0,40.187,40.354,0.0,1.0,1.9215,
81.9502,2.143,0.0,48.175,48.316,0.0,1.0,2.143,
82.7502,2.364,0.0,56.162,56.283,0.0,1.0,2.364,
83.5502,2.5821,0.0,64.15,64.258,0.0,1.0,2.5821,
84.3502,2.7843,0.0,72.133,72.25,0.0,1.0,2.7843,
85.1502,2.9984,0.0,80.12,80.254,0.0,1.0,2.9984,
85.9502,3.2093,0.0,88.108,88.241,0.0,1.0,3.2093,
86.7502,3.423,0.0,96.095,96.22,0.0,1.0,3.423,
87.5502,3.6387,0.0,104.083,104.208,0.0,1.0,3.6387,
88.3502,3.868,0.0,112.07,112.191,0.0,1.0,3.868,
89.1502,4.1027,0.0,120.058,120.17,0.0,1.0,4.1027,
89.9502,4.3528,0.0,128.041,128.154,0.0,1.0,4.3528,
90.7502,4.6053,0.0,136.029,136.141,0.0,1.0,4.6053,
91.5502,4.8712,0.0,144.016,144.129,0.0,1.0,4.8712,
92.3502,5.1394,0.0,152.004,152.1,0.0,1.0,5.1394,
93.1502,5.4166,0.0,159.991,160.087,0.0,1.0,5.4166,
93.9502,5.696,0.0,167.979,168.083,0.0,1.0,5.696,
94.7502,5.9683,0.0,175.962,176.07,0.0,1.0,5.9683,
95.5502,6.2637,0.0,183.95,184.054,0.0,1.0,6.2637,
96.3502,6.5635,0.0,191.937,192.045,0.0,1.0,6.5635,
97.1502,6.8821,0.0,199.925,200.025,0.0,1.0,6.8821,
97.9502,7.1998,0.0,207.912,207.995,0.0,1.0,7.1998,
98.7502,7.5297,0.0,215.9,215.979,0.0,1.0,7.5297,
99.5502,7.8687,0.0,223.887,223.966,0.0,1.0,7.8687,
100.35,8.2137,0.0,231.87,231.958,0.0,1.0,8.2137,
101.15,8.5786,0.0,239.858,239.95,0.0,1.0,8.5786,
101.95,8.9505,0.0,247.845,247.937,0.0,1.0,8.9505,
102.75,9.4199,0.0,255.833,255.916,0.0,1.0,9.4199,
103.55,9.8264,0.0,263.82,263.891,0.0,1.0,9.8264,
104.35,10.2508,0.0,271.808,271.879,0.0,1.0,10.2508,
105.15,10.6883,0.0,279.795,279.862,0.0,1.0,10.6883,
105.95,11.1287,0.0,287.779,287.854,0.0,1.0,11.1287,
106.75,11.6023,0.0,295.766,295.845,0.0,1.0,11.6023,
107.55,12.069,0.0,303.754,303.845,0.0,1.0,12.069,
108.35,12.5688,0.0,311.741,311.833,0.0,1.0,12.5688,
109.15,13.1091,0.0,319.729,319.812,0.0,1.0,13.1091,
109.95,13.7135,0.0,327.716,327.791,0.0,1.0,13.7135,
110.75,14.5504,0.0,335.704,335.762,0.0,1.0,14.5504,
111.55,14.6718,0.0,343.687,343.75,0.0,1.0,14.6718,
112.35,15.1105,0.0,351.675,351.75,0.0,1.0,15.1105,
113.15,15.6967,0.0,359.662,359.75,0.0,1.0,15.6967,
113.95,16.3062,0.0,367.65,367.729,0.0,1.0,16.3062,
114.75,16.9992,0.0,375.637,375.704,0.0,1.0,16.9992,
115.55,16.987,0.0,376.37,376.9,0.0,1.0,16.987,
116.35,16.3227,0.0,368.383,368.925,0.0,1.0,16.3227,
117.15,15.6947,0.0,360.395,360.95,0.0,1.0,15.6947,
117.95,15.0861,0.0,352.408,352.958,0.0,1.0,15.0861,
118.75,14.4973,0.0,344.425,344.966,0.0,1.0,14.4973,
119.55,13.9269,0.0,336.437,336.987,0.0,1.0,13.9269,
120.35,13.3707,0.0,328.45,329.016,0.0,1.0,13.3707,
121.15,12.8505,0.0,320.462,321.041,0.0,1.0,12.8505,
121.95,12.3523,0.0,312.475,313.066,0.0,1.0,12.3523,
122.75,11.8744,0.0,304.487,305.075,0.0,1.0,11.8744,
123.55,9.4539,0.0,296.5,297.087,0.0,1.0,9.4539,
124.35,10.8361,0.0,288.516,289.091,0.0,1.0,10.8361,
125.15,10.4988,0.0,280.529,281.108,0.0,1.0,10.4988,
125.95,10.1135,0.0,272.541,273.116,0.0,1.0,10.1135,
126.75,9.7234,0.0,264.554,265.141,0.0,1.0,9.7234,
127.55,9.3378,0.0,256.566,257.166,0.0,1.0,9.3378,
128.35,8.9755,0.0,248.579,249.195,0.0,1.0,8.9755,
129.15,8.6143,0.0,240.595,241.212,0.0,1.0,8.6143,
129.95,8.2577,0.0,232.608,233.22,0.0,1.0,8.2577,
130.75,7.9088,0.0,224.62,225.233,0.0,1.0,7.9088,
131.55,7.5753,0.0,216.633,217.258,0.0,1.0,7.5753,
132.35,7.2573,0.0,208.645,209.275,0.0,1.0,7.2573,
133.15,6.9577,0.0,200.658,201.304,0.0,1.0,6.9577,
133.95,6.6592,0.0,192.67,193.333,0.0,1.0,6.6592,
134.75,6.371,0.0,184.687,185.345,0.0,1.0,6.371,
135.55,6.0966,0.0,176.7,177.366,0.0,1.0,6.0966,
136.35,5.8244,0.0,168.712,169.387,0.0,1.0,5.8244,
137.15,5.5666,0.0,160.725,161.4,0.0,1.0,5.5666,
137.95,5.3304,0.0,152.737,153.42,0.0,1.0,5.3304,
138.75,5.0941,0.0,144.75,145.445,0.0,1.0,5.0941,
139.55,4.8709,0.0,136.762,137.483,0.0,1.0,4.8709,
140.35,4.6406,0.0,128.779,129.495,0.0,1.0,4.6406,
141.15,4.4166,0.0,120.791,121.516,0.0,1.0,4.4166,
141.95,4.2013,0.0,112.804,113.541,0.0,1.0,4.2013,
142.75,3.9975,0.0,104.816,105.575,0.0,1.0,3.9975,
143.55,3.7985,0.0,96.829,97.608,0.0,1.0,3.7985,
144.35,3.6034,0.0,88.841,89.645,0.0,1.0,3.6034,
145.15,3.4152,0.0,80.854,81.695,0.0,1.0,3.4152,
145.95,3.2322,0.0,72.87,73.716,0.0,1.0,3.2322,
146.75,3.0588,0.0,64.883,65.75,0.0,1.0,3.0588,
147.55,2.887,0.0,56.895,57.8,0.0,1.0,2.887,
148.35,2.7224,0.0,48.908,49.862,0.0,1.0,2.7224,
149.15,2.5738,0.0,40.92,41.954,0.0,1.0,2.5738,
149.95,2.4528,0.0,32.933,34.066,0.0,1.0,2.4528,
151.931,1.9529,0.0,30.0,30.65,0.0,1.0,1.9529,
154.5975,1.9784,0.0,30.0,30.637,0.0,1.0,1.9784,
155.856,1.8123,0.0,36.02,36.2,0.0,1.0,1.8123,
156.656,2.0217,0.0,44.008,44.166,0.0,1.0,2.0217,
157.456,2.2257,0.0,51.995,52.133,0.0,1.0,2.2257,
158.256,2.4311,0.0,59.983,60.112,0.0,1.0,2.4311,
159.056,2.6399,0.0,67.97,68.104,0.0,1.0,2.6399,
159.856,2.8398,0.0,75.958,76.1,0.0,1.0,2.8398,
160.656,3.0565,0.0,83.941,84.1,0.0,1.0,3.0565,
161.456,3.2813,0.0,91.929,92.07,0.0,1.0,3.2813,
162.256,3.5051,0.0,99.916,100.045,0.0,1.0,3.5051,
163.056,3.735,0.0,107.904,108.016,0.0,1.0,3.735,
163.856,3.9626,0.0,115.891,116.0,0.0,1.0,3.9626,
164.656,4.2054,0.0,123.879,123.991,0.0,1.0,4.2054,
165.456,4.4415,0.0,131.866,131.979,0.0,1.0,4.4415,
166.256,4.6999,0.0,139.85,139.975,0.0,1.0,4.6999,
167.056,4.9731,0.0,147.837,147.945,0.0,1.0,4.9731,
167.856,5.2376,0.0,155.825,155.929,0.0,1.0,5.2376,
168.656,5.5047,0.0,163.812,163.92,0.0,1.0,5.5047,
169.456,5.7874,0.0,171.8,171.904,0.0,1.0,5.7874,
170.256,6.0755,0.0,179.787,179.891,0.0,1.0,6.0755,
171.056,6.3561,0.0,187.775,187.883,0.0,1.0,6.3561,
171.856,6.6666,0.0,195.758,195.875,0.0,1.0,6.6666,
172.656,6.9727,0.0,203.745,203.854,0.0,1.0,6.9727,
173.456,7.2868,0.0,211.733,211.829,0.0,1.0,7.2868,
174.256,7.6226,0.0,219.72,219.804,0.0,1.0,7.6226,
175.056,7.9698,0.0,227.708,227.795,0.0,1.0,7.9698,
175.856,8.3181,0.0,235.695,235.787,0.0,1.0,8.3181,
176.656,8.68,0.0,243.679,243.787,0.0,1.0,8.68,
177.456,9.0547,0.0,251.666,251.766,0.0,1.0,9.0547,
178.256,9.4565,0.0,259.654,259.737,0.0,1.0,9.4565,
179.056,9.8653,0.0,267.641,267.716,0.0,1.0,9.8653,
179.856,10.2868,0.0,275.629,275.7,0.0,1.0,10.2868,
180.656,10.7297,0.0,283.616,283.691,0.0,1.0,10.7297,
181.456,11.1865,0.0,291.604,291.683,0.0,1.0,11.1865,
182.256,11.6636,0.0,299.587,299.675,0.0,1.0,11.6636,
183.056,12.1332,0.0,307.575,307.67,0.0,1.0,12.1332,
183.856,12.6325,0.0,315.562,315.65,0.0,1.0,12.6325,
184.656,13.1853,0.0,323.55,323.637,0.0,1.0,13.1853,
185.456,13.8564,0.0,331.537,331.616,0.0,1.0,13.8564,
186.256,14.7709,0.0,339.525,339.604,0.0,1.0,14.7709,
187.056,14.6425,0.0,347.512,347.595,0.0,1.0,14.6425,
187.856,15.2131,0.0,355.495,355.591,0.0,1.0,15.2131,
188.656,15.8259,0.0,363.483,363.579,0.0,1.0,15.8259,
189.456,16.4765,0.0,371.47,371.558,0.0,1.0,16.4765,
190.256,17.1516,0.0,379.458,379.541,0.0,1.0,17.1516,
190.306,17.1955,0.0,379.958,380.041,0.0,1.0,17.1955,