File: Chapter4_Crystallinity-measurement/data/DSC/501024_1.csv
Time,Unsubtracted Heat Flow,Baseline Heat Flow,Program Temperature,Sample Temperature,Approx. Gas Flow,Heat Flow Calibration,Uncorrected Heat Flow,
0.0,-0.3442,0.0,30.0,60.737,0.0,1.0,-0.3442,
2.666667,-0.144,0.0,30.0,59.966,0.0,1.0,-0.144,
5.333333,-0.0389,0.0,33.254,59.695,0.0,1.0,-0.0389,
8.0,-0.4492,0.0,59.879,61.42,0.0,1.0,-0.4492,
10.6667,0.684,0.0,86.5,87.787,0.0,1.0,0.684,
13.3333,1.4362,0.0,113.125,114.245,0.0,1.0,1.4362,
16.0,2.162,0.0,139.745,140.795,0.0,1.0,2.162,
18.6667,2.9459,0.0,166.37,167.341,0.0,1.0,2.9459,
21.3333,3.989,0.0,192.991,193.929,0.0,1.0,3.989,
24.0,5.201,0.0,219.616,220.495,0.0,1.0,5.201,
26.6667,6.464,0.0,246.237,247.1,0.0,1.0,6.464,
29.3333,7.8697,0.0,272.862,273.679,0.0,1.0,7.8697,
32.0,9.5714,0.0,299.483,300.3,0.0,1.0,9.5714,
34.6667,11.7275,0.0,326.108,326.904,0.0,1.0,11.7275,
37.3333,13.5088,0.0,352.729,353.525,0.0,1.0,13.5088,
40.0,15.8387,0.0,379.354,380.129,0.0,1.0,15.8387,
40.8443,14.7935,0.0,372.204,373.462,0.0,1.0,14.7935,
41.6443,14.0461,0.0,364.216,365.487,0.0,1.0,14.0461,
42.4443,13.3486,0.0,356.229,357.52,0.0,1.0,13.3486,
43.2443,12.678,0.0,348.241,349.533,0.0,1.0,12.678,
44.0443,12.044,0.0,340.254,341.55,0.0,1.0,12.044,
44.8443,11.4409,0.0,332.266,333.57,0.0,1.0,11.4409,
45.6443,10.8573,0.0,324.283,325.6,0.0,1.0,10.8573,
46.4443,10.3059,0.0,316.295,317.629,0.0,1.0,10.3059,
47.2443,9.771,0.0,308.308,309.658,0.0,1.0,9.771,
48.0443,9.1395,0.0,300.32,301.687,0.0,1.0,9.1395,
48.8443,8.0653,0.0,292.333,293.695,0.0,1.0,8.0653,
49.6443,8.1678,0.0,284.345,285.708,0.0,1.0,8.1678,
50.4443,7.77,0.0,276.358,277.737,0.0,1.0,7.77,
51.2443,7.3627,0.0,268.375,269.766,0.0,1.0,7.3627,
52.0443,6.9621,0.0,260.387,261.795,0.0,1.0,6.9621,
52.8443,6.5678,0.0,252.4,253.837,0.0,1.0,6.5678,
53.6443,6.1903,0.0,244.412,245.866,0.0,1.0,6.1903,
54.4443,5.8229,0.0,236.425,237.883,0.0,1.0,5.8229,
55.2443,5.4666,0.0,228.437,229.908,0.0,1.0,5.4666,
56.0443,5.1234,0.0,220.45,221.945,0.0,1.0,5.1234,
56.8443,4.7988,0.0,212.466,213.975,0.0,1.0,4.7988,
57.6443,4.4828,0.0,204.479,206.02,0.0,1.0,4.4828,
58.4443,4.1854,0.0,196.491,198.058,0.0,1.0,4.1854,
59.2443,3.8981,0.0,188.504,190.095,0.0,1.0,3.8981,
60.0443,3.6257,0.0,180.516,182.125,0.0,1.0,3.6257,
60.8443,3.3662,0.0,172.529,174.166,0.0,1.0,3.3662,
61.6443,3.1215,0.0,164.545,166.208,0.0,1.0,3.1215,
62.4443,2.8915,0.0,156.558,158.254,0.0,1.0,2.8915,
63.2443,2.6764,0.0,148.57,150.304,0.0,1.0,2.6764,
64.0443,2.4763,0.0,140.583,142.362,0.0,1.0,2.4763,
64.8443,2.2829,0.0,132.595,134.412,0.0,1.0,2.2829,
65.6443,2.0951,0.0,124.608,126.47,0.0,1.0,2.0951,
66.4443,1.9184,0.0,116.62,118.541,0.0,1.0,1.9184,
67.2443,1.7557,0.0,108.637,110.629,0.0,1.0,1.7557,
68.0443,1.6169,0.0,100.65,102.733,0.0,1.0,1.6169,
68.8443,1.4968,0.0,92.662,94.845,0.0,1.0,1.4968,
69.6443,1.4245,0.0,84.675,87.0,0.0,1.0,1.4245,
70.4443,1.4568,0.0,76.687,79.179,0.0,1.0,1.4568,
71.2443,1.229,0.0,68.7,71.575,0.0,1.0,1.229,
72.0443,0.8585,0.0,60.712,66.67,0.0,1.0,0.8585,
72.8443,0.5885,0.0,52.729,64.054,0.0,1.0,0.5885,
73.6443,0.3328,0.0,44.741,62.637,0.0,1.0,0.3328,
74.4443,0.0861,0.0,36.754,61.862,0.0,1.0,0.0861,
75.5325,-0.1205,0.0,30.0,61.316,0.0,1.0,-0.1205,
78.1992,-0.1148,0.0,30.0,60.82,0.0,1.0,-0.1148,
80.3502,-0.0427,0.0,32.204,60.633,0.0,1.0,-0.0427,
81.1502,0.2005,0.0,40.187,60.579,0.0,1.0,0.2005,
81.9502,0.4436,0.0,48.175,60.516,0.0,1.0,0.4436,
82.7502,0.686,0.0,56.162,60.458,0.0,1.0,0.686,
83.5502,0.2581,0.0,64.15,65.662,0.0,1.0,0.2581,
84.3502,0.4661,0.0,72.137,73.558,0.0,1.0,0.4661,
85.1502,0.6702,0.0,80.125,81.483,0.0,1.0,0.6702,
85.9502,0.8735,0.0,88.112,89.408,0.0,1.0,0.8735,
86.7502,1.0812,0.0,96.095,97.337,0.0,1.0,1.0812,
87.5502,1.2907,0.0,104.083,105.275,0.0,1.0,1.2907,
88.3502,1.5173,0.0,112.07,113.22,0.0,1.0,1.5173,
89.1502,1.7512,0.0,120.058,121.175,0.0,1.0,1.7512,
89.9502,1.9907,0.0,128.045,129.133,0.0,1.0,1.9907,
90.7502,2.2385,0.0,136.033,137.104,0.0,1.0,2.2385,
91.5502,2.5048,0.0,144.02,145.07,0.0,1.0,2.5048,
92.3502,2.7867,0.0,152.004,153.029,0.0,1.0,2.7867,
93.1502,3.0662,0.0,159.991,160.995,0.0,1.0,3.0662,
93.9502,3.3253,0.0,167.979,168.966,0.0,1.0,3.3253,
94.7502,3.6399,0.0,175.966,176.937,0.0,1.0,3.6399,
95.5502,3.9411,0.0,183.954,184.908,0.0,1.0,3.9411,
96.3502,4.2602,0.0,191.941,192.895,0.0,1.0,4.2602,
97.1502,4.5919,0.0,199.929,200.858,0.0,1.0,4.5919,
97.9502,4.9386,0.0,207.912,208.829,0.0,1.0,4.9386,
98.7502,5.2954,0.0,215.9,216.8,0.0,1.0,5.2954,
99.5502,5.6657,0.0,223.887,224.77,0.0,1.0,5.6657,
100.35,6.0511,0.0,231.875,232.758,0.0,1.0,6.0511,
101.15,6.4553,0.0,239.862,240.737,0.0,1.0,6.4553,
101.95,6.8807,0.0,247.85,248.729,0.0,1.0,6.8807,
102.75,7.3156,0.0,255.833,256.695,0.0,1.0,7.3156,
103.55,7.7735,0.0,263.82,264.666,0.0,1.0,7.7735,
104.35,8.2632,0.0,271.808,272.641,0.0,1.0,8.2632,
105.15,8.7641,0.0,279.795,280.629,0.0,1.0,8.7641,
105.95,9.2903,0.0,287.783,288.608,0.0,1.0,9.2903,
106.75,9.8408,0.0,295.77,296.595,0.0,1.0,9.8408,
107.55,10.3714,0.0,303.758,304.591,0.0,1.0,10.3714,
108.35,10.9345,0.0,311.741,312.575,0.0,1.0,10.9345,
109.15,11.5583,0.0,319.729,320.554,0.0,1.0,11.5583,
109.95,12.2719,0.0,327.716,328.525,0.0,1.0,12.2719,
110.75,13.2625,0.0,335.704,336.5,0.0,1.0,13.2625,
111.55,13.3096,0.0,343.691,344.483,0.0,1.0,13.3096,
112.35,13.8316,0.0,351.679,352.475,0.0,1.0,13.8316,
113.15,14.4989,0.0,359.666,360.475,0.0,1.0,14.4989,
113.95,15.1896,0.0,367.65,368.45,0.0,1.0,15.1896,
114.75,15.9117,0.0,375.637,376.425,0.0,1.0,15.9117,
115.55,15.6104,0.0,376.37,377.637,0.0,1.0,15.6104,
116.35,14.8272,0.0,368.383,369.662,0.0,1.0,14.8272,
117.15,14.0997,0.0,360.4,361.7,0.0,1.0,14.0997,
117.95,13.4023,0.0,352.412,353.712,0.0,1.0,13.4023,
118.75,12.7364,0.0,344.425,345.725,0.0,1.0,12.7364,
119.55,12.1016,0.0,336.437,337.75,0.0,1.0,12.1016,
120.35,11.4982,0.0,328.45,329.779,0.0,1.0,11.4982,
121.15,10.9159,0.0,320.462,321.808,0.0,1.0,10.9159,
121.95,10.3566,0.0,312.475,313.837,0.0,1.0,10.3566,
122.75,9.8161,0.0,304.491,305.854,0.0,1.0,9.8161,
123.55,7.4477,0.0,296.504,297.883,0.0,1.0,7.4477,
124.35,8.5794,0.0,288.516,289.895,0.0,1.0,8.5794,
125.15,8.2368,0.0,280.529,281.916,0.0,1.0,8.2368,
125.95,7.8139,0.0,272.541,273.941,0.0,1.0,7.8139,
126.75,7.3906,0.0,264.554,265.958,0.0,1.0,7.3906,
127.55,6.9744,0.0,256.57,258.0,0.0,1.0,6.9744,
128.35,6.5678,0.0,248.583,250.029,0.0,1.0,6.5678,
129.15,6.1758,0.0,240.595,242.066,0.0,1.0,6.1758,
129.95,5.7972,0.0,232.608,234.087,0.0,1.0,5.7972,
130.75,5.4358,0.0,224.62,226.116,0.0,1.0,5.4358,
131.55,5.0843,0.0,216.633,218.145,0.0,1.0,5.0843,
132.35,4.7478,0.0,208.645,210.179,0.0,1.0,4.7478,
133.15,4.4269,0.0,200.662,202.22,0.0,1.0,4.4269,
133.95,4.1236,0.0,192.675,194.27,0.0,1.0,4.1236,
134.75,3.8313,0.0,184.687,186.304,0.0,1.0,3.8313,
135.55,3.5532,0.0,176.7,178.333,0.0,1.0,3.5532,
136.35,3.2894,0.0,168.712,170.375,0.0,1.0,3.2894,
137.15,3.0395,0.0,160.725,162.416,0.0,1.0,3.0395,
137.95,2.8068,0.0,152.737,154.462,0.0,1.0,2.8068,
138.75,2.5906,0.0,144.754,146.525,0.0,1.0,2.5906,
139.55,2.3893,0.0,136.766,138.587,0.0,1.0,2.3893,
140.35,2.1916,0.0,128.779,130.633,0.0,1.0,2.1916,
141.15,2.0029,0.0,120.791,122.7,0.0,1.0,2.0029,
141.95,1.8288,0.0,112.804,114.775,0.0,1.0,1.8288,
142.75,1.6714,0.0,104.816,106.87,0.0,1.0,1.6714,
143.55,1.544,0.0,96.833,98.983,0.0,1.0,1.544,
144.35,1.4416,0.0,88.845,91.116,0.0,1.0,1.4416,
145.15,1.4156,0.0,80.858,83.291,0.0,1.0,1.4156,
145.95,1.5788,0.0,72.87,75.508,0.0,1.0,1.5788,
146.75,0.977,0.0,64.883,69.15,0.0,1.0,0.977,
147.55,0.6942,0.0,56.895,65.712,0.0,1.0,0.6942,
148.35,0.4342,0.0,48.908,63.87,0.0,1.0,0.4342,
149.15,0.1837,0.0,40.925,62.862,0.0,1.0,0.1837,
149.95,-0.0606,0.0,32.937,62.3,0.0,1.0,-0.0606,
151.931,-0.1479,0.0,30.0,61.704,0.0,1.0,-0.1479,
154.5975,-0.1404,0.0,30.0,61.395,0.0,1.0,-0.1404,
155.856,0.0446,0.0,36.02,61.295,0.0,1.0,0.0446,
156.656,0.2876,0.0,44.008,61.237,0.0,1.0,0.2876,
157.456,0.5315,0.0,51.995,61.175,0.0,1.0,0.5315,
158.256,-1.8092,0.0,59.983,61.641,0.0,1.0,-1.8092,
159.056,0.34,0.0,67.97,69.458,0.0,1.0,0.34,
159.856,0.5437,0.0,75.958,77.366,0.0,1.0,0.5437,
160.656,0.7497,0.0,83.941,85.295,0.0,1.0,0.7497,
161.456,0.9478,0.0,91.929,93.22,0.0,1.0,0.9478,
162.256,1.1683,0.0,99.916,101.15,0.0,1.0,1.1683,
163.056,1.3886,0.0,107.904,109.087,0.0,1.0,1.3886,
163.856,1.6167,0.0,115.891,117.041,0.0,1.0,1.6167,
164.656,1.8473,0.0,123.879,124.991,0.0,1.0,1.8473,
165.456,2.0917,0.0,131.862,132.954,0.0,1.0,2.0917,
166.256,2.3448,0.0,139.85,140.933,0.0,1.0,2.3448,
167.056,2.6199,0.0,147.837,148.887,0.0,1.0,2.6199,
167.856,2.8992,0.0,155.825,156.845,0.0,1.0,2.8992,
168.656,3.1756,0.0,163.812,164.816,0.0,1.0,3.1756,
169.456,3.4594,0.0,171.8,172.791,0.0,1.0,3.4594,
170.256,3.7607,0.0,179.787,180.762,0.0,1.0,3.7607,
171.056,4.0636,0.0,187.77,188.741,0.0,1.0,4.0636,
171.856,4.3864,0.0,195.758,196.716,0.0,1.0,4.3864,
172.656,4.7185,0.0,203.745,204.679,0.0,1.0,4.7185,
173.456,5.0648,0.0,211.733,212.645,0.0,1.0,5.0648,
174.256,5.42,0.0,219.72,220.62,0.0,1.0,5.42,
175.056,5.7935,0.0,227.708,228.6,0.0,1.0,5.7935,
175.856,6.179,0.0,235.695,236.583,0.0,1.0,6.179,
176.656,6.5832,0.0,243.679,244.575,0.0,1.0,6.5832,
177.456,7.0009,0.0,251.666,252.55,0.0,1.0,7.0009,
178.256,7.4333,0.0,259.654,260.512,0.0,1.0,7.4333,
179.056,7.8899,0.0,267.641,268.487,0.0,1.0,7.8899,
179.856,8.3654,0.0,275.629,276.47,0.0,1.0,8.3654,
180.656,8.861,0.0,283.616,284.45,0.0,1.0,8.861,
181.456,9.3771,0.0,291.6,292.437,0.0,1.0,9.3771,
182.256,9.9108,0.0,299.587,300.425,0.0,1.0,9.9108,
183.056,10.4484,0.0,307.575,308.416,0.0,1.0,10.4484,
183.856,11.0412,0.0,315.562,316.4,0.0,1.0,11.0412,
184.656,11.6985,0.0,323.55,324.366,0.0,1.0,11.6985,
185.456,12.5149,0.0,331.537,332.35,0.0,1.0,12.5149,
186.256,13.5612,0.0,339.525,340.329,0.0,1.0,13.5612,
187.056,13.3109,0.0,347.508,348.32,0.0,1.0,13.3109,
187.856,13.9607,0.0,355.495,356.308,0.0,1.0,13.9607,
188.656,14.6386,0.0,363.483,364.295,0.0,1.0,14.6386,
189.456,15.3458,0.0,371.47,372.27,0.0,1.0,15.3458,
190.256,16.0809,0.0,379.458,380.25,0.0,1.0,16.0809,
190.306,16.1281,0.0,379.958,380.75,0.0,1.0,16.1281,