File: Chapter4_Crystallinity-measurement/data/DSC/501023_2.csv
Time,Unsubtracted Heat Flow,Baseline Heat Flow,Program Temperature,Sample Temperature,Approx. Gas Flow,Heat Flow Calibration,Uncorrected Heat Flow,
0.0,-0.2802,0.0,30.0,56.65,0.0,1.0,-0.2802,
2.666667,0.0579,0.0,30.0,55.687,0.0,1.0,0.0579,
5.333333,0.1594,0.0,33.254,55.445,0.0,1.0,0.1594,
8.0,0.1585,0.0,59.879,61.262,0.0,1.0,0.1585,
10.6667,0.7328,0.0,86.5,87.683,0.0,1.0,0.7328,
13.3333,1.3555,0.0,113.125,114.158,0.0,1.0,1.3555,
16.0,2.0932,0.0,139.745,140.72,0.0,1.0,2.0932,
18.6667,2.869,0.0,166.37,167.275,0.0,1.0,2.869,
21.3333,3.7432,0.0,192.991,193.866,0.0,1.0,3.7432,
24.0,4.755,0.0,219.616,220.433,0.0,1.0,4.755,
26.6667,5.95,0.0,246.237,247.041,0.0,1.0,5.95,
29.3333,7.2409,0.0,272.862,273.629,0.0,1.0,7.2409,
32.0,8.7455,0.0,299.483,300.25,0.0,1.0,8.7455,
34.6667,10.6177,0.0,326.108,326.858,0.0,1.0,10.6177,
37.3333,12.2623,0.0,352.729,353.47,0.0,1.0,12.2623,
40.0,14.3387,0.0,379.354,380.079,0.0,1.0,14.3387,
40.8443,13.7393,0.0,372.204,373.412,0.0,1.0,13.7393,
41.6443,13.0574,0.0,364.216,365.441,0.0,1.0,13.0574,
42.4443,12.4169,0.0,356.229,357.47,0.0,1.0,12.4169,
43.2443,11.8043,0.0,348.241,349.483,0.0,1.0,11.8043,
44.0443,11.2095,0.0,340.258,341.504,0.0,1.0,11.2095,
44.8443,10.632,0.0,332.27,333.525,0.0,1.0,10.632,
45.6443,10.0756,0.0,324.283,325.55,0.0,1.0,10.0756,
46.4443,9.5456,0.0,316.295,317.583,0.0,1.0,9.5456,
47.2443,9.0396,0.0,308.308,309.608,0.0,1.0,9.0396,
48.0443,8.3644,0.0,300.32,301.633,0.0,1.0,8.3644,
48.8443,7.7975,0.0,292.333,293.654,0.0,1.0,7.7975,
49.6443,7.6185,0.0,284.35,285.662,0.0,1.0,7.6185,
50.4443,7.2659,0.0,276.362,277.687,0.0,1.0,7.2659,
51.2443,6.9029,0.0,268.375,269.712,0.0,1.0,6.9029,
52.0443,6.5466,0.0,260.387,261.741,0.0,1.0,6.5466,
52.8443,6.2018,0.0,252.4,253.787,0.0,1.0,6.2018,
53.6443,5.8674,0.0,244.412,245.816,0.0,1.0,5.8674,
54.4443,5.5468,0.0,236.425,237.829,0.0,1.0,5.5468,
55.2443,5.2377,0.0,228.441,229.854,0.0,1.0,5.2377,
56.0443,4.9386,0.0,220.454,221.887,0.0,1.0,4.9386,
56.8443,4.6494,0.0,212.466,213.92,0.0,1.0,4.6494,
57.6443,4.3746,0.0,204.479,205.962,0.0,1.0,4.3746,
58.4443,4.1098,0.0,196.491,198.004,0.0,1.0,4.1098,
59.2443,3.8464,0.0,188.504,190.037,0.0,1.0,3.8464,
60.0443,3.5934,0.0,180.52,182.066,0.0,1.0,3.5934,
60.8443,3.3535,0.0,172.533,174.108,0.0,1.0,3.3535,
61.6443,3.1217,0.0,164.545,166.145,0.0,1.0,3.1217,
62.4443,2.9071,0.0,156.558,158.187,0.0,1.0,2.9071,
63.2443,2.7032,0.0,148.57,150.237,0.0,1.0,2.7032,
64.0443,2.5135,0.0,140.583,142.295,0.0,1.0,2.5135,
64.8443,2.3363,0.0,132.595,134.345,0.0,1.0,2.3363,
65.6443,2.1614,0.0,124.612,126.395,0.0,1.0,2.1614,
66.4443,1.9977,0.0,116.625,118.462,0.0,1.0,1.9977,
67.2443,1.8475,0.0,108.637,110.541,0.0,1.0,1.8475,
68.0443,1.7179,0.0,100.65,102.633,0.0,1.0,1.7179,
68.8443,1.5987,0.0,92.662,94.741,0.0,1.0,1.5987,
69.6443,1.5246,0.0,84.675,86.887,0.0,1.0,1.5246,
70.4443,1.5185,0.0,76.687,79.041,0.0,1.0,1.5185,
71.2443,1.713,0.0,68.704,71.266,0.0,1.0,1.713,
72.0443,1.0265,0.0,60.716,65.133,0.0,1.0,1.0265,
72.8443,0.7214,0.0,52.729,61.845,0.0,1.0,0.7214,
73.6443,0.4483,0.0,44.741,60.07,0.0,1.0,0.4483,
74.4443,0.1922,0.0,36.754,59.112,0.0,1.0,0.1922,
75.5325,-0.0213,0.0,30.0,58.445,0.0,1.0,-0.0213,
78.1992,-0.0219,0.0,30.0,57.895,0.0,1.0,-0.0219,
80.3502,0.0492,0.0,32.204,57.729,0.0,1.0,0.0492,
81.1502,0.2921,0.0,40.187,57.675,0.0,1.0,0.2921,
81.9502,0.5341,0.0,48.175,57.633,0.0,1.0,0.5341,
82.7502,-2.1728,0.0,56.162,57.833,0.0,1.0,-2.1728,
83.5502,0.2003,0.0,64.15,65.558,0.0,1.0,0.2003,
84.3502,0.3845,0.0,72.137,73.475,0.0,1.0,0.3845,
85.1502,0.5668,0.0,80.125,81.4,0.0,1.0,0.5668,
85.9502,0.7464,0.0,88.112,89.329,0.0,1.0,0.7464,
86.7502,0.9288,0.0,96.095,97.27,0.0,1.0,0.9288,
87.5502,1.1334,0.0,104.083,105.208,0.0,1.0,1.1334,
88.3502,1.337,0.0,112.07,113.158,0.0,1.0,1.337,
89.1502,1.5468,0.0,120.058,121.112,0.0,1.0,1.5468,
89.9502,1.7583,0.0,128.045,129.075,0.0,1.0,1.7583,
90.7502,1.9912,0.0,136.033,137.05,0.0,1.0,1.9912,
91.5502,2.2369,0.0,144.016,145.012,0.0,1.0,2.2369,
92.3502,2.4902,0.0,152.004,152.97,0.0,1.0,2.4902,
93.1502,2.7315,0.0,159.991,160.941,0.0,1.0,2.7315,
93.9502,3.0062,0.0,167.979,168.92,0.0,1.0,3.0062,
94.7502,3.2742,0.0,175.966,176.887,0.0,1.0,3.2742,
95.5502,3.5627,0.0,183.954,184.866,0.0,1.0,3.5627,
96.3502,3.8579,0.0,191.941,192.845,0.0,1.0,3.8579,
97.1502,4.1649,0.0,199.925,200.816,0.0,1.0,4.1649,
97.9502,4.4851,0.0,207.912,208.783,0.0,1.0,4.4851,
98.7502,4.8167,0.0,215.9,216.758,0.0,1.0,4.8167,
99.5502,5.1644,0.0,223.887,224.733,0.0,1.0,5.1644,
100.35,5.5279,0.0,231.875,232.716,0.0,1.0,5.5279,
101.15,5.9059,0.0,239.862,240.704,0.0,1.0,5.9059,
101.95,6.2918,0.0,247.85,248.687,0.0,1.0,6.2918,
102.75,6.6876,0.0,255.833,256.654,0.0,1.0,6.6876,
103.55,7.099,0.0,263.82,264.625,0.0,1.0,7.099,
104.35,7.5214,0.0,271.808,272.608,0.0,1.0,7.5214,
105.15,7.9567,0.0,279.795,280.587,0.0,1.0,7.9567,
105.95,8.4108,0.0,287.783,288.57,0.0,1.0,8.4108,
106.75,8.881,0.0,295.77,296.558,0.0,1.0,8.881,
107.55,9.3545,0.0,303.758,304.554,0.0,1.0,9.3545,
108.35,9.854,0.0,311.741,312.537,0.0,1.0,9.854,
109.15,10.3974,0.0,319.729,320.52,0.0,1.0,10.3974,
109.95,11.0095,0.0,327.716,328.491,0.0,1.0,11.0095,
110.75,11.8576,0.0,335.704,336.466,0.0,1.0,11.8576,
111.55,11.9603,0.0,343.691,344.45,0.0,1.0,11.9603,
112.35,12.4424,0.0,351.679,352.445,0.0,1.0,12.4424,
113.15,13.0344,0.0,359.662,360.441,0.0,1.0,13.0344,
113.95,13.6495,0.0,367.65,368.412,0.0,1.0,13.6495,
114.75,14.277,0.0,375.637,376.391,0.0,1.0,14.277,
115.55,14.3575,0.0,376.37,377.604,0.0,1.0,14.3575,
116.35,13.652,0.0,368.383,369.633,0.0,1.0,13.652,
117.15,12.9957,0.0,360.395,361.662,0.0,1.0,12.9957,
117.95,12.3739,0.0,352.408,353.679,0.0,1.0,12.3739,
118.75,11.7809,0.0,344.425,345.691,0.0,1.0,11.7809,
119.55,11.2138,0.0,336.437,337.712,0.0,1.0,11.2138,
120.35,10.6715,0.0,328.45,329.745,0.0,1.0,10.6715,
121.15,10.1548,0.0,320.462,321.775,0.0,1.0,10.1548,
121.95,9.6585,0.0,312.475,313.795,0.0,1.0,9.6585,
122.75,9.1731,0.0,304.487,305.82,0.0,1.0,9.1731,
123.55,6.4883,0.0,296.5,297.841,0.0,1.0,6.4883,
124.35,8.1322,0.0,288.516,289.858,0.0,1.0,8.1322,
125.15,7.7798,0.0,280.529,281.879,0.0,1.0,7.7798,
125.95,7.3981,0.0,272.541,273.904,0.0,1.0,7.3981,
126.75,7.0164,0.0,264.554,265.933,0.0,1.0,7.0164,
127.55,6.6476,0.0,256.566,257.958,0.0,1.0,6.6476,
128.35,6.2935,0.0,248.579,250.008,0.0,1.0,6.2935,
129.15,5.9494,0.0,240.595,242.033,0.0,1.0,5.9494,
129.95,5.6156,0.0,232.608,234.05,0.0,1.0,5.6156,
130.75,5.2901,0.0,224.62,226.079,0.0,1.0,5.2901,
131.55,4.9716,0.0,216.633,218.108,0.0,1.0,4.9716,
132.35,4.6632,0.0,208.645,210.141,0.0,1.0,4.6632,
133.15,4.3683,0.0,200.658,202.183,0.0,1.0,4.3683,
133.95,4.087,0.0,192.67,194.233,0.0,1.0,4.087,
134.75,3.8162,0.0,184.687,186.262,0.0,1.0,3.8162,
135.55,3.5576,0.0,176.7,178.295,0.0,1.0,3.5576,
136.35,3.3111,0.0,168.712,170.333,0.0,1.0,3.3111,
137.15,3.0754,0.0,160.725,162.37,0.0,1.0,3.0754,
137.95,2.8566,0.0,152.737,154.416,0.0,1.0,2.8566,
138.75,2.6493,0.0,144.75,146.475,0.0,1.0,2.6493,
139.55,2.4554,0.0,136.762,138.537,0.0,1.0,2.4554,
140.35,2.2687,0.0,128.779,130.583,0.0,1.0,2.2687,
141.15,2.0895,0.0,120.791,122.645,0.0,1.0,2.0895,
141.95,1.9238,0.0,112.804,114.72,0.0,1.0,1.9238,
142.75,1.7755,0.0,104.816,106.808,0.0,1.0,1.7755,
143.55,1.6455,0.0,96.829,98.912,0.0,1.0,1.6455,
144.35,1.5491,0.0,88.841,91.041,0.0,1.0,1.5491,
145.15,1.5065,0.0,80.854,83.2,0.0,1.0,1.5065,
145.95,1.6004,0.0,72.87,75.395,0.0,1.0,1.6004,
146.75,1.1304,0.0,64.883,68.354,0.0,1.0,1.1304,
147.55,0.8027,0.0,56.895,64.329,0.0,1.0,0.8027,
148.35,0.5204,0.0,48.908,62.175,0.0,1.0,0.5204,
149.15,0.2583,0.0,40.92,61.012,0.0,1.0,0.2583,
149.95,0.0081,0.0,32.933,60.366,0.0,1.0,0.0081,
151.931,-0.0851,0.0,30.0,59.7,0.0,1.0,-0.0851,
154.5975,-0.0794,0.0,30.0,59.404,0.0,1.0,-0.0794,
155.856,0.1048,0.0,36.025,59.308,0.0,1.0,0.1048,
156.656,0.3473,0.0,44.012,59.254,0.0,1.0,0.3473,
157.456,0.5905,0.0,51.995,59.208,0.0,1.0,0.5905,
158.256,-0.1569,0.0,59.983,61.508,0.0,1.0,-0.1569,
159.056,0.2529,0.0,67.97,69.395,0.0,1.0,0.2529,
159.856,0.4427,0.0,75.958,77.308,0.0,1.0,0.4427,
160.656,0.6304,0.0,83.945,85.245,0.0,1.0,0.6304,
161.456,0.8199,0.0,91.933,93.17,0.0,1.0,0.8199,
162.256,1.0203,0.0,99.92,101.108,0.0,1.0,1.0203,
163.056,1.2231,0.0,107.904,109.045,0.0,1.0,1.2231,
163.856,1.4306,0.0,115.891,116.995,0.0,1.0,1.4306,
164.656,1.6422,0.0,123.879,124.954,0.0,1.0,1.6422,
165.456,1.8619,0.0,131.866,132.92,0.0,1.0,1.8619,
166.256,2.093,0.0,139.854,140.895,0.0,1.0,2.093,
167.056,2.3471,0.0,147.841,148.85,0.0,1.0,2.3471,
167.856,2.6049,0.0,155.829,156.812,0.0,1.0,2.6049,
168.656,2.8499,0.0,163.812,164.787,0.0,1.0,2.8499,
169.456,3.1386,0.0,171.8,172.762,0.0,1.0,3.1386,
170.256,3.4081,0.0,179.787,180.733,0.0,1.0,3.4081,
171.056,3.7096,0.0,187.775,188.712,0.0,1.0,3.7096,
171.856,4.0139,0.0,195.762,196.695,0.0,1.0,4.0139,
172.656,4.3309,0.0,203.75,204.654,0.0,1.0,4.3309,
173.456,4.6569,0.0,211.737,212.625,0.0,1.0,4.6569,
174.256,4.9937,0.0,219.72,220.6,0.0,1.0,4.9937,
175.056,5.3328,0.0,227.708,228.57,0.0,1.0,5.3328,
175.856,5.6854,0.0,235.695,236.558,0.0,1.0,5.6854,
176.656,6.0605,0.0,243.683,244.55,0.0,1.0,6.0605,
177.456,6.4344,0.0,251.67,252.525,0.0,1.0,6.4344,
178.256,6.8366,0.0,259.658,260.491,0.0,1.0,6.8366,
179.056,7.2511,0.0,267.641,268.462,0.0,1.0,7.2511,
179.856,7.6793,0.0,275.629,276.441,0.0,1.0,7.6793,
180.656,8.1262,0.0,283.616,284.429,0.0,1.0,8.1262,
181.456,8.5935,0.0,291.604,292.416,0.0,1.0,8.5935,
182.256,9.0759,0.0,299.591,300.408,0.0,1.0,9.0759,
183.056,9.5621,0.0,307.579,308.395,0.0,1.0,9.5621,
183.856,10.0885,0.0,315.566,316.375,0.0,1.0,10.0885,
184.656,10.6642,0.0,323.55,324.35,0.0,1.0,10.6642,
185.456,11.3619,0.0,331.537,332.329,0.0,1.0,11.3619,
186.256,12.2635,0.0,339.525,340.308,0.0,1.0,12.2635,
187.056,12.1602,0.0,347.512,348.295,0.0,1.0,12.1602,
187.856,12.7431,0.0,355.5,356.287,0.0,1.0,12.7431,
188.656,13.3529,0.0,363.487,364.275,0.0,1.0,13.3529,
189.456,13.9883,0.0,371.475,372.245,0.0,1.0,13.9883,
190.256,14.6408,0.0,379.458,380.233,0.0,1.0,14.6408,
190.306,14.6826,0.0,379.958,380.733,0.0,1.0,14.6826,