File: Chapter4_Crystallinity-measurement/data/DSC/501023_1.csv
Time,Unsubtracted Heat Flow,Baseline Heat Flow,Program Temperature,Sample Temperature,Approx. Gas Flow,Heat Flow Calibration,Uncorrected Heat Flow,
0.0,0.1077,0.0,30.0,45.916,0.0,1.0,0.1077,
2.666667,0.685,0.0,30.0,44.395,0.0,1.0,0.685,
5.333333,0.7763,0.0,33.254,44.204,0.0,1.0,0.7763,
8.0,0.8596,0.0,59.879,60.908,0.0,1.0,0.8596,
10.6667,1.5975,0.0,86.5,87.416,0.0,1.0,1.5975,
13.3333,2.3999,0.0,113.125,113.929,0.0,1.0,2.3999,
16.0,3.2644,0.0,139.745,140.512,0.0,1.0,3.2644,
18.6667,4.1926,0.0,166.37,167.083,0.0,1.0,4.1926,
21.3333,5.2341,0.0,192.991,193.687,0.0,1.0,5.2341,
24.0,6.4368,0.0,219.616,220.266,0.0,1.0,6.4368,
26.6667,7.7627,0.0,246.237,246.891,0.0,1.0,7.7627,
29.3333,9.2191,0.0,272.862,273.479,0.0,1.0,9.2191,
32.0,10.8761,0.0,299.483,300.104,0.0,1.0,10.8761,
34.6667,12.8866,0.0,326.108,326.716,0.0,1.0,12.8866,
37.3333,14.7284,0.0,352.729,353.333,0.0,1.0,14.7284,
40.0,16.9479,0.0,379.354,379.95,0.0,1.0,16.9479,
40.8443,16.3304,0.0,372.204,373.279,0.0,1.0,16.3304,
41.6443,15.5837,0.0,364.216,365.304,0.0,1.0,15.5837,
42.4443,14.8735,0.0,356.229,357.333,0.0,1.0,14.8735,
43.2443,14.196,0.0,348.241,349.35,0.0,1.0,14.196,
44.0443,13.5457,0.0,340.254,341.366,0.0,1.0,13.5457,
44.8443,12.926,0.0,332.266,333.383,0.0,1.0,12.926,
45.6443,12.334,0.0,324.283,325.412,0.0,1.0,12.334,
46.4443,11.7675,0.0,316.295,317.445,0.0,1.0,11.7675,
47.2443,11.221,0.0,308.308,309.466,0.0,1.0,11.221,
48.0443,10.5638,0.0,300.32,301.491,0.0,1.0,10.5638,
48.8443,9.9176,0.0,292.333,293.504,0.0,1.0,9.9176,
49.6443,9.6308,0.0,284.345,285.52,0.0,1.0,9.6308,
50.4443,9.1937,0.0,276.362,277.545,0.0,1.0,9.1937,
51.2443,8.7557,0.0,268.375,269.566,0.0,1.0,8.7557,
52.0443,8.3284,0.0,260.387,261.595,0.0,1.0,8.3284,
52.8443,7.9147,0.0,252.4,253.637,0.0,1.0,7.9147,
53.6443,7.5104,0.0,244.412,245.67,0.0,1.0,7.5104,
54.4443,7.12,0.0,236.425,237.683,0.0,1.0,7.12,
55.2443,6.7419,0.0,228.437,229.704,0.0,1.0,6.7419,
56.0443,6.3756,0.0,220.454,221.737,0.0,1.0,6.3756,
56.8443,6.0266,0.0,212.466,213.766,0.0,1.0,6.0266,
57.6443,5.6856,0.0,204.479,205.8,0.0,1.0,5.6856,
58.4443,5.3614,0.0,196.491,197.845,0.0,1.0,5.3614,
59.2443,5.0507,0.0,188.504,189.883,0.0,1.0,5.0507,
60.0443,4.7486,0.0,180.516,181.904,0.0,1.0,4.7486,
60.8443,4.4579,0.0,172.529,173.941,0.0,1.0,4.4579,
61.6443,4.176,0.0,164.545,165.975,0.0,1.0,4.176,
62.4443,3.9067,0.0,156.558,158.008,0.0,1.0,3.9067,
63.2443,3.6528,0.0,148.57,150.058,0.0,1.0,3.6528,
64.0443,3.4073,0.0,140.583,142.112,0.0,1.0,3.4073,
64.8443,3.1723,0.0,132.595,134.154,0.0,1.0,3.1723,
65.6443,2.9444,0.0,124.608,126.195,0.0,1.0,2.9444,
66.4443,2.724,0.0,116.62,118.258,0.0,1.0,2.724,
67.2443,2.5156,0.0,108.637,110.325,0.0,1.0,2.5156,
68.0443,2.3261,0.0,100.65,102.4,0.0,1.0,2.3261,
68.8443,2.1449,0.0,92.662,94.495,0.0,1.0,2.1449,
69.6443,1.9909,0.0,84.675,86.604,0.0,1.0,1.9909,
70.4443,1.873,0.0,76.687,78.72,0.0,1.0,1.873,
71.2443,1.8147,0.0,68.7,70.87,0.0,1.0,1.8147,
72.0443,1.9602,0.0,60.716,63.095,0.0,1.0,1.9602,
72.8443,1.2535,0.0,52.729,57.07,0.0,1.0,1.2535,
73.6443,0.9388,0.0,44.741,53.833,0.0,1.0,0.9388,
74.4443,0.6591,0.0,36.754,52.087,0.0,1.0,0.6591,
75.5325,0.4287,0.0,30.0,50.925,0.0,1.0,0.4287,
78.1992,0.4144,0.0,30.0,50.112,0.0,1.0,0.4144,
80.3502,0.4806,0.0,32.204,49.966,0.0,1.0,0.4806,
81.1502,0.7215,0.0,40.191,49.941,0.0,1.0,0.7215,
81.9502,-0.6068,0.0,48.175,49.929,0.0,1.0,-0.6068,
82.7502,0.4748,0.0,56.162,57.412,0.0,1.0,0.4748,
83.5502,0.6938,0.0,64.15,65.316,0.0,1.0,0.6938,
84.3502,0.913,0.0,72.137,73.25,0.0,1.0,0.913,
85.1502,1.1306,0.0,80.125,81.195,0.0,1.0,1.1306,
85.9502,1.3503,0.0,88.112,89.145,0.0,1.0,1.3503,
86.7502,1.5802,0.0,96.1,97.087,0.0,1.0,1.5802,
87.5502,1.8103,0.0,104.083,105.041,0.0,1.0,1.8103,
88.3502,2.0536,0.0,112.07,112.995,0.0,1.0,2.0536,
89.1502,2.2991,0.0,120.058,120.958,0.0,1.0,2.2991,
89.9502,2.5493,0.0,128.045,128.929,0.0,1.0,2.5493,
90.7502,2.8136,0.0,136.033,136.904,0.0,1.0,2.8136,
91.5502,3.0895,0.0,144.02,144.879,0.0,1.0,3.0895,
92.3502,3.3749,0.0,152.008,152.837,0.0,1.0,3.3749,
93.1502,3.6605,0.0,159.991,160.812,0.0,1.0,3.6605,
93.9502,3.9497,0.0,167.979,168.791,0.0,1.0,3.9497,
94.7502,4.2484,0.0,175.966,176.766,0.0,1.0,4.2484,
95.5502,4.5563,0.0,183.954,184.741,0.0,1.0,4.5563,
96.3502,4.8824,0.0,191.941,192.729,0.0,1.0,4.8824,
97.1502,5.2123,0.0,199.929,200.691,0.0,1.0,5.2123,
97.9502,5.5538,0.0,207.916,208.666,0.0,1.0,5.5538,
98.7502,5.9066,0.0,215.9,216.645,0.0,1.0,5.9066,
99.5502,6.2724,0.0,223.887,224.625,0.0,1.0,6.2724,
100.35,6.6546,0.0,231.875,232.604,0.0,1.0,6.6546,
101.15,7.0479,0.0,239.862,240.595,0.0,1.0,7.0479,
101.95,7.4526,0.0,247.85,248.575,0.0,1.0,7.4526,
102.75,7.8766,0.0,255.837,256.545,0.0,1.0,7.8766,
103.55,8.3089,0.0,263.82,264.516,0.0,1.0,8.3089,
104.35,8.7566,0.0,271.808,272.5,0.0,1.0,8.7566,
105.15,9.2209,0.0,279.795,280.491,0.0,1.0,9.2209,
105.95,9.7009,0.0,287.783,288.47,0.0,1.0,9.7009,
106.75,10.2002,0.0,295.77,296.454,0.0,1.0,10.2002,
107.55,10.7,0.0,303.758,304.454,0.0,1.0,10.7,
108.35,11.2244,0.0,311.745,312.441,0.0,1.0,11.2244,
109.15,11.794,0.0,319.729,320.416,0.0,1.0,11.794,
109.95,12.4178,0.0,327.716,328.395,0.0,1.0,12.4178,
110.75,13.2397,0.0,335.704,336.366,0.0,1.0,13.2397,
111.55,13.4655,0.0,343.691,344.358,0.0,1.0,13.4655,
112.35,13.9977,0.0,351.679,352.35,0.0,1.0,13.9977,
113.15,14.6265,0.0,359.666,360.35,0.0,1.0,14.6265,
113.95,15.2607,0.0,367.654,368.325,0.0,1.0,15.2607,
114.75,15.9355,0.0,375.637,376.3,0.0,1.0,15.9355,
115.55,16.0832,0.0,376.37,377.508,0.0,1.0,16.0832,
116.35,15.3354,0.0,368.383,369.541,0.0,1.0,15.3354,
117.15,14.6284,0.0,360.395,361.575,0.0,1.0,14.6284,
117.95,13.9591,0.0,352.412,353.583,0.0,1.0,13.9591,
118.75,13.3188,0.0,344.425,345.595,0.0,1.0,13.3188,
119.55,12.7104,0.0,336.437,337.616,0.0,1.0,12.7104,
120.35,12.1278,0.0,328.45,329.65,0.0,1.0,12.1278,
121.15,11.567,0.0,320.462,321.683,0.0,1.0,11.567,
121.95,11.0239,0.0,312.475,313.712,0.0,1.0,11.0239,
122.75,10.4969,0.0,304.491,305.729,0.0,1.0,10.4969,
123.55,8.3878,0.0,296.504,297.75,0.0,1.0,8.3878,
124.35,9.3941,0.0,288.516,289.758,0.0,1.0,9.3941,
125.15,8.993,0.0,280.529,281.783,0.0,1.0,8.993,
125.95,8.5627,0.0,272.541,273.808,0.0,1.0,8.5627,
126.75,8.1419,0.0,264.554,265.833,0.0,1.0,8.1419,
127.55,7.7282,0.0,256.566,257.866,0.0,1.0,7.7282,
128.35,7.3305,0.0,248.583,249.908,0.0,1.0,7.3305,
129.15,6.9455,0.0,240.595,241.929,0.0,1.0,6.9455,
129.95,6.573,0.0,232.608,233.945,0.0,1.0,6.573,
130.75,6.2151,0.0,224.62,225.975,0.0,1.0,6.2151,
131.55,5.8697,0.0,216.633,218.004,0.0,1.0,5.8697,
132.35,5.5374,0.0,208.645,210.037,0.0,1.0,5.5374,
133.15,5.216,0.0,200.658,202.075,0.0,1.0,5.216,
133.95,4.9087,0.0,192.675,194.12,0.0,1.0,4.9087,
134.75,4.6111,0.0,184.687,186.15,0.0,1.0,4.6111,
135.55,4.3224,0.0,176.7,178.179,0.0,1.0,4.3224,
136.35,4.0461,0.0,168.712,170.216,0.0,1.0,4.0461,
137.15,3.7813,0.0,160.725,162.254,0.0,1.0,3.7813,
137.95,3.5279,0.0,152.737,154.295,0.0,1.0,3.5279,
138.75,3.2895,0.0,144.75,146.345,0.0,1.0,3.2895,
139.55,3.0613,0.0,136.766,138.404,0.0,1.0,3.0613,
140.35,2.8408,0.0,128.779,130.45,0.0,1.0,2.8408,
141.15,2.6263,0.0,120.791,122.5,0.0,1.0,2.6263,
141.95,2.4212,0.0,112.804,114.57,0.0,1.0,2.4212,
142.75,2.2317,0.0,104.816,106.645,0.0,1.0,2.2317,
143.55,2.0573,0.0,96.829,98.737,0.0,1.0,2.0573,
144.35,1.9052,0.0,88.845,90.85,0.0,1.0,1.9052,
145.15,1.7877,0.0,80.858,82.983,0.0,1.0,1.7877,
145.95,1.7371,0.0,72.87,75.129,0.0,1.0,1.7371,
146.75,1.8876,0.0,64.883,67.358,0.0,1.0,1.8876,
147.55,1.1889,0.0,56.895,61.25,0.0,1.0,1.1889,
148.35,0.873,0.0,48.908,57.975,0.0,1.0,0.873,
149.15,0.5928,0.0,40.92,56.212,0.0,1.0,0.5928,
149.95,0.3317,0.0,32.937,55.254,0.0,1.0,0.3317,
151.931,0.2273,0.0,30.0,54.329,0.0,1.0,0.2273,
154.5975,0.227,0.0,30.0,54.02,0.0,1.0,0.227,
155.856,0.41,0.0,36.02,53.95,0.0,1.0,0.41,
156.656,0.6522,0.0,44.008,53.912,0.0,1.0,0.6522,
157.456,-0.3548,0.0,51.995,53.883,0.0,1.0,-0.3548,
158.256,0.3921,0.0,59.983,61.316,0.0,1.0,0.3921,
159.056,0.6124,0.0,67.966,69.225,0.0,1.0,0.6124,
159.856,0.8291,0.0,75.954,77.162,0.0,1.0,0.8291,
160.656,1.0462,0.0,83.941,85.104,0.0,1.0,1.0462,
161.456,1.268,0.0,91.929,93.033,0.0,1.0,1.268,
162.256,1.4983,0.0,99.916,100.97,0.0,1.0,1.4983,
163.056,1.7335,0.0,107.904,108.925,0.0,1.0,1.7335,
163.856,1.9776,0.0,115.887,116.883,0.0,1.0,1.9776,
164.656,2.2234,0.0,123.875,124.845,0.0,1.0,2.2234,
165.456,2.4816,0.0,131.862,132.808,0.0,1.0,2.4816,
166.256,2.7517,0.0,139.85,140.795,0.0,1.0,2.7517,
167.056,3.032,0.0,147.837,148.75,0.0,1.0,3.032,
167.856,3.3131,0.0,155.825,156.716,0.0,1.0,3.3131,
168.656,3.6058,0.0,163.812,164.687,0.0,1.0,3.6058,
169.456,3.8964,0.0,171.795,172.662,0.0,1.0,3.8964,
170.256,4.2052,0.0,179.783,180.637,0.0,1.0,4.2052,
171.056,4.5207,0.0,187.77,188.616,0.0,1.0,4.5207,
171.856,4.849,0.0,195.758,196.6,0.0,1.0,4.849,
172.656,5.1814,0.0,203.745,204.57,0.0,1.0,5.1814,
173.456,5.53,0.0,211.733,212.537,0.0,1.0,5.53,
174.256,5.8905,0.0,219.72,220.512,0.0,1.0,5.8905,
175.056,6.2639,0.0,227.704,228.491,0.0,1.0,6.2639,
175.856,6.6507,0.0,235.691,236.479,0.0,1.0,6.6507,
176.656,7.0489,0.0,243.679,244.466,0.0,1.0,7.0489,
177.456,7.4604,0.0,251.666,252.445,0.0,1.0,7.4604,
178.256,7.888,0.0,259.654,260.412,0.0,1.0,7.888,
179.056,8.331,0.0,267.641,268.383,0.0,1.0,8.331,
179.856,8.7879,0.0,275.629,276.366,0.0,1.0,8.7879,
180.656,9.2625,0.0,283.612,284.35,0.0,1.0,9.2625,
181.456,9.7541,0.0,291.6,292.337,0.0,1.0,9.7541,
182.256,10.2606,0.0,299.587,300.333,0.0,1.0,10.2606,
183.056,10.7725,0.0,307.575,308.316,0.0,1.0,10.7725,
183.856,11.3177,0.0,315.562,316.304,0.0,1.0,11.3177,
184.656,11.9074,0.0,323.55,324.283,0.0,1.0,11.9074,
185.456,12.5957,0.0,331.533,332.258,0.0,1.0,12.5957,
186.256,13.4236,0.0,339.52,340.241,0.0,1.0,13.4236,
187.056,13.5104,0.0,347.508,348.225,0.0,1.0,13.5104,
187.856,14.1249,0.0,355.495,356.22,0.0,1.0,14.1249,
188.656,14.7675,0.0,363.483,364.204,0.0,1.0,14.7675,
189.456,15.4212,0.0,371.47,372.179,0.0,1.0,15.4212,
190.256,16.1082,0.0,379.458,380.166,0.0,1.0,16.1082,
190.306,16.1511,0.0,379.954,380.662,0.0,1.0,16.1511,