File: Chapter4_Crystallinity-measurement/data/DSC/HDPE_1.csv
Time,Unsubtracted Heat Flow,Baseline Heat Flow,Program Temperature,Sample Temperature,Approx. Gas Flow,Heat Flow Calibration,Uncorrected Heat Flow,
0.0,-6.1544,0.0,30.0,25.845,0.0,1.0,-6.1544,
2.451167,1.9837,0.0,32.241,33.145,0.0,1.0,1.9837,
3.501167,2.2406,0.0,37.483,38.325,0.0,1.0,2.2406,
4.551167,2.4845,0.0,42.725,43.508,0.0,1.0,2.4845,
5.601167,2.7183,0.0,47.966,48.716,0.0,1.0,2.7183,
6.651167,2.9512,0.0,53.208,53.916,0.0,1.0,2.9512,
7.701167,3.1967,0.0,58.45,59.133,0.0,1.0,3.1967,
8.751167,3.446,0.0,63.691,64.354,0.0,1.0,3.446,
9.801167,3.6904,0.0,68.933,69.583,0.0,1.0,3.6904,
10.8512,3.9441,0.0,74.175,74.812,0.0,1.0,3.9441,
11.9012,4.1956,0.0,79.416,80.054,0.0,1.0,4.1956,
12.9512,4.4584,0.0,84.654,85.291,0.0,1.0,4.4584,
14.0012,4.7287,0.0,89.895,90.508,0.0,1.0,4.7287,
15.0512,5.0072,0.0,95.137,95.737,0.0,1.0,5.0072,
16.1012,5.3038,0.0,100.379,100.962,0.0,1.0,5.3038,
17.1512,5.6151,0.0,105.62,106.191,0.0,1.0,5.6151,
18.2012,5.9751,0.0,110.862,111.425,0.0,1.0,5.9751,
19.2512,6.4774,0.0,116.104,116.65,0.0,1.0,6.4774,
20.3012,7.4124,0.0,121.345,121.879,0.0,1.0,7.4124,
21.3512,10.6379,0.0,126.587,127.095,0.0,1.0,10.6379,
22.4012,6.7596,0.0,131.829,132.337,0.0,1.0,6.7596,
23.4512,7.0651,0.0,137.07,137.575,0.0,1.0,7.0651,
24.5012,7.3247,0.0,142.312,142.816,0.0,1.0,7.3247,
25.5512,7.5795,0.0,147.554,148.045,0.0,1.0,7.5795,
26.6012,7.8384,0.0,152.795,153.275,0.0,1.0,7.8384,
27.6512,8.0968,0.0,158.037,158.52,0.0,1.0,8.0968,
28.7012,8.3553,0.0,163.279,163.758,0.0,1.0,8.3553,
29.7512,8.6235,0.0,168.52,169.004,0.0,1.0,8.6235,
30.8012,8.9059,0.0,173.762,174.245,0.0,1.0,8.9059,
31.8512,9.1926,0.0,179.004,179.483,0.0,1.0,9.1926,
32.9012,9.4793,0.0,184.245,184.733,0.0,1.0,9.4793,
33.9512,9.772,0.0,189.487,189.975,0.0,1.0,9.772,
35.0012,10.0716,0.0,194.729,195.216,0.0,1.0,10.0716,
36.0512,10.3822,0.0,199.97,200.45,0.0,1.0,10.3822,
37.1012,8.9838,0.0,194.787,195.55,0.0,1.0,8.9838,
38.1512,8.6628,0.0,189.545,190.316,0.0,1.0,8.6628,
39.2012,8.3519,0.0,184.304,185.079,0.0,1.0,8.3519,
40.2512,8.0477,0.0,179.062,179.841,0.0,1.0,8.0477,
41.3012,7.7512,0.0,173.82,174.608,0.0,1.0,7.7512,
42.3512,7.4632,0.0,168.579,169.375,0.0,1.0,7.4632,
43.4012,7.1861,0.0,163.341,164.133,0.0,1.0,7.1861,
44.4512,6.9105,0.0,158.1,158.908,0.0,1.0,6.9105,
45.5012,6.6399,0.0,152.858,153.666,0.0,1.0,6.6399,
46.5512,6.3674,0.0,147.616,148.441,0.0,1.0,6.3674,
47.6012,6.1042,0.0,142.375,143.216,0.0,1.0,6.1042,
48.6512,5.8484,0.0,137.133,137.991,0.0,1.0,5.8484,
49.7012,5.5925,0.0,131.891,132.745,0.0,1.0,5.5925,
50.7512,5.3403,0.0,126.65,127.512,0.0,1.0,5.3403,
51.8012,4.6551,0.0,121.408,122.283,0.0,1.0,4.6551,
52.8512,1.8073,0.0,116.166,117.054,0.0,1.0,1.8073,
53.9012,3.7401,0.0,110.925,111.829,0.0,1.0,3.7401,
54.9512,3.8754,0.0,105.683,106.595,0.0,1.0,3.8754,
56.0012,3.8084,0.0,100.441,101.375,0.0,1.0,3.8084,
57.0512,3.6679,0.0,95.2,96.154,0.0,1.0,3.6679,
58.1012,3.4986,0.0,89.958,90.929,0.0,1.0,3.4986,
59.1512,3.3065,0.0,84.716,85.72,0.0,1.0,3.3065,
60.2012,3.1177,0.0,79.475,80.491,0.0,1.0,3.1177,
61.2512,2.9597,0.0,74.233,75.266,0.0,1.0,2.9597,
62.3012,2.7876,0.0,68.991,70.045,0.0,1.0,2.7876,
63.3512,2.6046,0.0,63.75,64.825,0.0,1.0,2.6046,
64.4012,2.4437,0.0,58.508,59.62,0.0,1.0,2.4437,
65.4512,2.2673,0.0,53.266,54.416,0.0,1.0,2.2673,
66.5012,2.0801,0.0,48.025,49.233,0.0,1.0,2.0801,
67.5512,1.9331,0.0,42.783,44.054,0.0,1.0,1.9331,
68.6012,1.7898,0.0,37.545,38.904,0.0,1.0,1.7898,
69.6512,1.6843,0.0,32.304,33.77,0.0,1.0,1.6843,
70.7012,2.0119,0.0,32.933,33.829,0.0,1.0,2.0119,
71.7512,2.2363,0.0,38.175,39.008,0.0,1.0,2.2363,
72.8012,2.466,0.0,43.416,44.2,0.0,1.0,2.466,
73.8512,2.6983,0.0,48.658,49.408,0.0,1.0,2.6983,
74.9012,2.9311,0.0,53.9,54.608,0.0,1.0,2.9311,
75.9512,3.171,0.0,59.141,59.829,0.0,1.0,3.171,
77.0012,3.4051,0.0,64.383,65.054,0.0,1.0,3.4051,
78.0512,3.6523,0.0,69.625,70.283,0.0,1.0,3.6523,
79.1012,3.886,0.0,74.866,75.512,0.0,1.0,3.886,
80.1512,4.147,0.0,80.108,80.754,0.0,1.0,4.147,
81.2012,4.4055,0.0,85.35,85.983,0.0,1.0,4.4055,
82.2512,4.6577,0.0,90.591,91.2,0.0,1.0,4.6577,
83.3012,4.9462,0.0,95.833,96.433,0.0,1.0,4.9462,
84.3512,5.2475,0.0,101.075,101.658,0.0,1.0,5.2475,
85.4012,5.5672,0.0,106.316,106.887,0.0,1.0,5.5672,
86.4512,5.9381,0.0,111.558,112.125,0.0,1.0,5.9381,
87.5012,6.4361,0.0,116.8,117.35,0.0,1.0,6.4361,
88.5512,7.4129,0.0,122.041,122.579,0.0,1.0,7.4129,
89.6012,9.6829,0.0,127.279,127.816,0.0,1.0,9.6829,
90.6512,6.623,0.0,132.52,133.058,0.0,1.0,6.623,
91.7012,6.8601,0.0,137.762,138.308,0.0,1.0,6.8601,
92.7512,7.1217,0.0,143.004,143.537,0.0,1.0,7.1217,
93.8012,7.3941,0.0,148.245,148.766,0.0,1.0,7.3941,
94.8512,7.6668,0.0,153.487,153.995,0.0,1.0,7.6668,
95.9012,7.9369,0.0,158.729,159.237,0.0,1.0,7.9369,
96.9512,8.2207,0.0,163.97,164.47,0.0,1.0,8.2207,
98.0012,8.5118,0.0,169.212,169.712,0.0,1.0,8.5118,
99.0512,8.8015,0.0,174.454,174.954,0.0,1.0,8.8015,
100.101,9.1076,0.0,179.695,180.187,0.0,1.0,9.1076,
101.151,9.4199,0.0,184.937,185.425,0.0,1.0,9.4199,
102.201,9.7349,0.0,190.179,190.67,0.0,1.0,9.7349,
103.251,10.0546,0.0,195.42,195.912,0.0,1.0,10.0546,
104.301,9.6163,0.0,199.337,200.079,0.0,1.0,9.6163,
105.351,8.9216,0.0,194.095,194.862,0.0,1.0,8.9216,
106.401,8.6101,0.0,188.854,189.62,0.0,1.0,8.6101,
107.451,8.3064,0.0,183.612,184.379,0.0,1.0,8.3064,
108.501,8.0018,0.0,178.37,179.145,0.0,1.0,8.0018,
109.551,7.7135,0.0,173.129,173.908,0.0,1.0,7.7135,
110.601,7.4242,0.0,167.887,168.675,0.0,1.0,7.4242,
111.651,7.1483,0.0,162.645,163.437,0.0,1.0,7.1483,
112.701,6.8772,0.0,157.404,158.204,0.0,1.0,6.8772,
113.751,6.6061,0.0,152.162,152.966,0.0,1.0,6.6061,
114.801,6.3422,0.0,146.92,147.745,0.0,1.0,6.3422,
115.851,6.0787,0.0,141.679,142.516,0.0,1.0,6.0787,
116.901,5.8185,0.0,136.437,137.283,0.0,1.0,5.8185,
117.951,5.5649,0.0,131.195,132.045,0.0,1.0,5.5649,
119.001,5.3175,0.0,125.954,126.812,0.0,1.0,5.3175,
120.051,3.248,0.0,120.712,121.579,0.0,1.0,3.248,
121.101,2.4777,0.0,115.47,116.35,0.0,1.0,2.4777,
122.151,3.8072,0.0,110.229,111.125,0.0,1.0,3.8072,
123.201,3.9013,0.0,104.987,105.895,0.0,1.0,3.9013,
124.251,3.8152,0.0,99.745,100.67,0.0,1.0,3.8152,
125.301,3.6721,0.0,94.508,95.45,0.0,1.0,3.6721,
126.351,3.4987,0.0,89.266,90.229,0.0,1.0,3.4987,
127.401,3.2979,0.0,84.025,85.02,0.0,1.0,3.2979,
128.451,3.1142,0.0,78.783,79.791,0.0,1.0,3.1142,
129.501,2.9601,0.0,73.541,74.575,0.0,1.0,2.9601,
130.551,2.7911,0.0,68.3,69.341,0.0,1.0,2.7911,
131.601,2.6176,0.0,63.058,64.125,0.0,1.0,2.6176,
132.651,2.4187,0.0,57.816,58.916,0.0,1.0,2.4187,
133.701,2.2603,0.0,52.575,53.725,0.0,1.0,2.2603,
134.751,2.0901,0.0,47.333,48.537,0.0,1.0,2.0901,
135.801,1.9264,0.0,42.091,43.362,0.0,1.0,1.9264,
136.851,1.7809,0.0,36.85,38.208,0.0,1.0,1.7809,
137.901,1.6806,0.0,31.608,33.079,0.0,1.0,1.6806,
138.951,2.05,0.0,33.629,34.5,0.0,1.0,2.05,
140.001,2.2836,0.0,38.87,39.683,0.0,1.0,2.2836,
141.051,2.5181,0.0,44.112,44.879,0.0,1.0,2.5181,
142.101,2.7508,0.0,49.354,50.083,0.0,1.0,2.7508,
143.151,2.9873,0.0,54.595,55.291,0.0,1.0,2.9873,
144.201,3.2308,0.0,59.837,60.504,0.0,1.0,3.2308,
145.251,3.4854,0.0,65.075,65.725,0.0,1.0,3.4854,
146.301,3.7308,0.0,70.316,70.954,0.0,1.0,3.7308,
147.351,3.9746,0.0,75.558,76.191,0.0,1.0,3.9746,
148.401,4.2262,0.0,80.8,81.433,0.0,1.0,4.2262,
149.451,4.4817,0.0,86.041,86.662,0.0,1.0,4.4817,
150.501,4.7505,0.0,91.283,91.883,0.0,1.0,4.7505,
151.551,5.0191,0.0,96.525,97.108,0.0,1.0,5.0191,
152.601,5.313,0.0,101.766,102.345,0.0,1.0,5.313,
153.651,5.6381,0.0,107.008,107.57,0.0,1.0,5.6381,
154.701,6.0114,0.0,112.25,112.804,0.0,1.0,6.0114,
155.751,6.5429,0.0,117.491,118.041,0.0,1.0,6.5429,
156.801,7.6215,0.0,122.733,123.266,0.0,1.0,7.6215,
157.851,10.1346,0.0,127.975,128.504,0.0,1.0,10.1346,
158.901,6.6344,0.0,133.216,133.758,0.0,1.0,6.6344,
159.951,6.8883,0.0,138.458,139.0,0.0,1.0,6.8883,
161.001,7.1574,0.0,143.7,144.233,0.0,1.0,7.1574,
162.051,7.4308,0.0,148.941,149.466,0.0,1.0,7.4308,
163.101,7.6918,0.0,154.183,154.695,0.0,1.0,7.6918,
164.151,7.9686,0.0,159.425,159.933,0.0,1.0,7.9686,
165.201,8.2533,0.0,164.666,165.17,0.0,1.0,8.2533,
166.251,8.5463,0.0,169.908,170.408,0.0,1.0,8.5463,
167.301,8.8451,0.0,175.15,175.645,0.0,1.0,8.8451,
168.351,9.148,0.0,180.391,180.875,0.0,1.0,9.148,
169.401,9.4644,0.0,185.633,186.12,0.0,1.0,9.4644,
170.451,9.7883,0.0,190.87,191.358,0.0,1.0,9.7883,
171.501,10.1305,0.0,196.112,196.595,0.0,1.0,10.1305,
172.551,9.1994,0.0,198.641,199.383,0.0,1.0,9.1994,
173.601,8.9545,0.0,193.4,194.15,0.0,1.0,8.9545,
174.651,8.6546,0.0,188.158,188.908,0.0,1.0,8.6546,
175.701,8.3689,0.0,182.916,183.658,0.0,1.0,8.3689,
176.751,8.0839,0.0,177.675,178.425,0.0,1.0,8.0839,
177.801,7.8084,0.0,172.433,173.187,0.0,1.0,7.8084,
178.851,7.5344,0.0,167.191,167.945,0.0,1.0,7.5344,
179.901,7.2664,0.0,161.95,162.708,0.0,1.0,7.2664,
180.951,7.0052,0.0,156.712,157.47,0.0,1.0,7.0052,
182.001,6.7475,0.0,151.47,152.233,0.0,1.0,6.7475,
183.051,6.492,0.0,146.229,147.0,0.0,1.0,6.492,
184.101,6.2453,0.0,140.987,141.779,0.0,1.0,6.2453,
185.151,5.9972,0.0,135.745,136.533,0.0,1.0,5.9972,
186.201,5.754,0.0,130.504,131.291,0.0,1.0,5.754,
187.251,5.5141,0.0,125.262,126.05,0.0,1.0,5.5141,
188.301,0.9094,0.0,120.02,120.833,0.0,1.0,0.9094,
189.351,3.2031,0.0,114.779,115.587,0.0,1.0,3.2031,
190.401,4.0947,0.0,109.537,110.362,0.0,1.0,4.0947,
191.451,4.152,0.0,104.295,105.129,0.0,1.0,4.152,
192.501,4.0676,0.0,99.054,99.891,0.0,1.0,4.0676,
193.551,3.9234,0.0,93.812,94.67,0.0,1.0,3.9234,
194.601,3.7477,0.0,88.57,89.45,0.0,1.0,3.7477,
195.651,3.5526,0.0,83.329,84.229,0.0,1.0,3.5526,
196.701,3.3848,0.0,78.087,79.0,0.0,1.0,3.3848,
197.751,3.2241,0.0,72.845,73.766,0.0,1.0,3.2241,
198.801,3.0531,0.0,67.604,68.537,0.0,1.0,3.0531,
199.851,2.8818,0.0,62.362,63.312,0.0,1.0,2.8818,
200.901,2.7039,0.0,57.12,58.104,0.0,1.0,2.7039,
201.951,2.5242,0.0,51.879,52.891,0.0,1.0,2.5242,
203.001,2.3471,0.0,46.637,47.691,0.0,1.0,2.3471,
204.051,2.1846,0.0,41.395,42.508,0.0,1.0,2.1846,
205.101,2.022,0.0,36.154,37.333,0.0,1.0,2.022,
206.151,1.88,0.0,30.916,32.175,0.0,1.0,1.88,
206.301,1.8638,0.0,30.166,31.445,0.0,1.0,1.8638,